Impedance (Ohms)
6076.0201384547645
6057.071171576579
6058.211064108201
6058.906769699236
6043.791018634716
6056.933324652716
6039.8985696614745
6023.628417795979
6047.611055900813
6063.585011257431
6087.67616714195
6167.982649571936
6254.874690097583
6297.680358826053
6347.715130394702
6254.207631461744
6315.2729163770955
6264.93691369284
6226.12472365622
6190.490306156448
6180.050690052664
6184.350548221868
6188.3501169518995
6149.060127164632
6144.711336532844
6144.387288956567
6123.388377311969
6111.338142651937
6121.061887169563
6132.02085750202
6121.996950231323
6119.056217168821
6112.0231381604835
6113.6343278516915
6104.53898547444
6110.073192721054
6096.9590140331675
6090.939269580422
6100.776039452929
6086.887799283297
6072.7981423052815
6080.21198946714
6089.912744875005
6066.55219445237
6053.9396797035815
6063.842501672082
6073.396930053899
6051.861287843715
6068.263231071024
6094.186817129201
6076.0611301775625
6074.369363635042
6079.99038484388
6080.044703215267
6053.109598218329
6058.580493398669
6060.253088057382
6054.959079387963
6060.322242626194
6076.413381655788
6059.48858256502
6109.464033845912
6097.33201248987
6000.927647054447
6037.712824156314
6056.215438359364
6052.425480111258
6055.055590234091
6046.006171379548
6053.701434762418
6046.393405479908
6037.068374431566
6053.956746247385
6033.995404667334
6028.574812625683
6032.766477119671
6022.8674179148165
6017.2468022642
6027.826976400079
6007.887034417089
6017.536170686624
6038.7873701680855
6020.783068367202
6017.613094337687
6023.558630925649
6006.203157734903
6006.104000484437
6028.023282470337
5999.611539211582
6004.224144175604
6018.023110431564
6005.970568371945
6003.75174579775
6007.583073116506
6002.39655729283
6006.921027283334
6014.054883274795
6007.548122905337
6006.37019691947
6003.66713280413
5984.151653802305
5966.098382859829
5968.396419323324
5950.832496064644
5955.2010017482235
5975.685278590644
5971.707538918603
5980.966524112231
5974.550180124952
5977.575919659586
5986.903203423079
5938.8076667832265
6033.967840720353
6026.82515353645
5909.115728989597
5975.579697555848
5985.222728252354
5973.677892777893
5978.201248701894
5979.838718991561
5971.014765143535
5974.352546629538
5977.376908358459
5964.058095330723
5969.733198925218
5972.804318086127
5977.2681830645415
5958.240835092708
5957.960413338408
5963.7472299347
5969.904916581116
5966.7397590538985
5981.384932165629
5969.390792773616
5966.576054845803
5966.126211873455
5961.046540697821
5952.121061276052
5958.023677064458
5962.884471864157
5946.867262709553
5939.397030731072
5944.167865842779
5947.86738465662
5935.963031121974
5927.224193818403
5932.1318074731125
5927.250852066902
5913.501271318716
5916.822402365216
5912.314513628069
5907.230108865817
5903.736475956131
5896.869601193032
5898.285891054763
5911.925295844098
5919.496652452431
5906.82594409007
5910.947445629456
5905.623201048541
5902.121385641503
5909.42869872848
5900.811480582629
5894.843787924659
5896.266355981301
5874.995089366048
5915.267528359324
5975.7906879098755
5932.306124263968
5943.7402200763845
5973.620201729854
6015.4372861505335
6090.6769576301995
6195.437148443294
6229.846513200412
6183.255141487
6127.914976361847
6087.396215896304
6074.97882226558
6031.457793995072
6026.270193761963
6007.000876497308
5985.467996562595
5981.070117866576
5969.09155128258
5937.794823839097
5951.675217830607
5959.408389511883
5947.09195404545
5950.658004267021
5951.608302408915
5936.396934301728
5924.154475679449
5936.414019246476
5944.547640706219
5940.776297234442
5932.400989584174
5953.666245614642
5972.110707471499
5967.96189592229
