Impedance (Ohms)
6071.534558662589
6059.391278612121
6045.383216322514
6053.913724611554
6048.257535595086
6046.705986089087
6053.400103695185
6028.86075930946
6042.107322823622
6072.562727723591
6090.480648160424
6153.952385597105
6265.003156945766
6302.555322243234
6351.214015315265
6295.761820344349
6268.283839953739
6243.655811340503
6220.926095341735
6209.3769142326555
6180.915003469402
6170.847621504083
6187.2201668610605
6168.191006287441
6144.346895032338
6129.121880924912
6123.2377228869045
6115.346377767404
6118.883188856039
6134.320523572186
6128.334897441689
6108.648637463929
6111.6617447563085
6118.103648915211
6106.515394711064
6092.697016850238
6097.512058817125
6103.644799918561
6097.571476798031
6079.504505609398
6083.777373362957
6080.7408996211
6079.822476648391
6069.787241401993
6070.5411798538225
6052.972232180289
6052.450600216727
6061.156722631186
6079.842417352927
6079.517521690316
6063.568829055947
6085.164775746387
6087.75869110929
6062.798822484537
6060.093823588093
6065.173005357997
6055.838743808676
6046.759325390831
6058.159558954708
6070.192922150002
6060.195388406502
6076.253172602089
6126.179797591621
5995.288916426849
6095.583949287401
6058.972459011901
6051.641019132887
6041.329313698416
6061.080284320002
6056.486573806638
6044.613208415514
6045.8403809556
6059.720102685423
6034.316303405089
6026.00732988627
6031.306570439343
6035.156614970565
6019.330379471136
6026.730220123191
6026.332242395486
6026.649815407876
6029.701317614726
6010.842349866807
6020.1634738871035
6020.8301285816815
6008.212306989309
6004.73616772679
6012.369441254837
5999.370205504553
5995.980707098685
6011.29604134697
6011.620320642501
5995.959993776896
6007.3791711712165
6011.174432413875
5999.546954278433
6006.75450811383
6018.87547479664
6002.8114557116205
5983.828174984075
5984.700896909093
5976.528227911981
5958.797854374744
5947.690755983691
5957.215596862288
5980.553777153739
5963.831173404649
5976.262685600009
5975.117927033777
5966.665349818168
5981.799566204551
5957.397342006915
6028.244856688435
6006.02633437822
5910.206151656791
6007.43924841438
5972.027779161225
5970.103030922285
5978.553087299092
5984.163901652544
5971.9662045974255
5975.18038413757
5973.1603145646495
5960.616398236614
5972.998016389517
5980.044944313609
5968.519892256064
5954.013318816687
5960.423110204212
5969.872387707514
5966.870769948111
5968.720884976165
5980.874566625557
5979.286588439053
5967.127433084607
5965.712295478264
5965.269728106667
5953.737338819786
5956.001227482276
5962.963081132286
5946.0131687690755
5943.539036265231
5945.966094485264
5945.345462288682
5936.010079256618
5925.298361274026
5933.611008275475
5930.074422644226
5914.615258099397
5917.642662845391
5922.113611302592
5912.8180168039935
5898.180413921027
5898.244191532337
5908.7328113244985
5907.829994899398
5922.5028352792515
5913.798784374962
5909.429494840919
5917.686546254661
5905.542767228224
5907.36636604222
5912.349778214482
5903.355250155798
5888.502258554265
5870.232801765746
5933.527230965817
5980.699577225708
5892.855500212856
5950.059205923738
5972.68594072155
6008.311800413969
6083.54324531476
6179.58682723562
6215.169133379425
6194.606866306771
6156.731841993096
6090.0926575684925
6073.191398350594
6047.626165501311
6036.2688524966825
6012.261091234793
5989.4454518338825
5981.070117866576
5972.036880880164
5949.629887467485
5951.994823903914
5954.313956712365
5948.334457491124
5952.847279260982
5952.133063442953
5937.845605890753
5929.084658169766
5935.780199533283
5943.064109673252
5940.9973866603
5933.374638171093
5948.844571356614
5972.298762742247
5968.257535627724
