Impedance (Ohms)
7374.8547320609705
7382.935891452369
7364.759531835544
7363.975718744253
7368.0672631929865
7347.243284619066
7333.412429532071
7338.730461504463
7328.860506178517
7325.609940547203
7303.804599530599
7280.895656547785
7177.501646261248
7850.1706282957175
7397.744260623283
7285.282040262939
7350.194729627384
7399.179934775767
7380.978686251114
7373.3969330820455
7365.886171051897
7340.940550898624
7333.898989140919
7331.895434871812
7317.840443696741
7324.449042548289
7314.53106939942
7306.3338110789155
7316.58643626451
7320.712851766465
7303.364002500777
7316.967771760618
7298.421374505026
7292.833218958733
7292.239226474448
7291.764868701278
7295.839449284525
7275.0009184009095
7272.9293356299395
7279.878911199134
7263.862745885329
7268.607263466193
7277.846423158844
7296.3207580236985
7273.456639981359
7280.479003739132
7272.742116742475
7274.309630615505
7257.5333256876465
7255.736578163763
7246.25686988361
7255.393523580713
7242.560131728285
7235.320541768734
7236.403357883447
7237.578823178374
7226.868120233234
7218.574194399761
7232.983386949511
7218.437037526346
7213.179653361297
7239.043821632852
7262.477384750179
7155.973087051042
7209.52569888941
7208.871094441544
7207.532975879002
7177.832891779863
7187.4349422920495
7188.686930986128
7167.523271053719
7197.550778688733
7178.285073249386
7171.863861691886
7159.078954099118
7129.585537874331
7338.70343826777
7260.695160221514
7205.897744215847
7195.039933461515
7188.463615151573
7166.541985648465
7144.008999685814
7164.734225846737
7152.545194334186
7156.33570665628
7158.29237169407
7173.670276556327
7140.510360863047
7154.732175909819
7132.783215680412
7111.329171423385
7124.197853589593
7120.077051840504
7103.453768565176
7077.014910107075
7144.404172681457
7153.3778081496175
7154.575672838714
7145.473502794581
7145.618430544785
7134.3028921943005
7138.370759526429
7121.266557264044
7112.904885836154
7092.908847102525
7113.748921495666
7132.076815840208
7118.398688815988
7110.166035401904
7100.674969377878
7075.8133972603255
7200.961665083384
7110.57012781598
7028.086737499127
7100.75097562459
7088.597849005439
7088.234036051456
7091.410892212354
7079.641671912292
7085.3570872944865
7074.86095033507
7073.479904649506
7077.189057211361
7079.130411632734
7070.106135240448
7070.526868663149
7070.065863556325
7066.532627323274
7051.637179313345
7056.371278204586
7069.152468463174
7066.96449528683
7072.4753838232255
7058.038044896554
7055.655920240078
7059.159559377878
7054.431268088028
7045.365359256828
7038.025465257763
7044.394219344628
7049.944933219216
7040.661399607516
7029.785267187941
7033.061312902958
7028.8405669941685
7028.030717921928
7023.472736195267
7026.6245689394
7023.5812892143695
7016.798048458904
7008.662871016077
7017.206670003595
7018.960100899157
7013.9552591527945
7010.644823971232
7013.101124465641
6998.463009813792
7007.577747924761
6997.7652601457985
6994.492145460612
6993.944348567554
6993.262868782621
6983.606244884883
7010.419963971556
6945.486610293995
7053.827252887936
7062.332713059655
6964.574036706489
6975.92081141899
6963.817964881653
6960.183595515405
6981.131381885963
6973.837226702725
6971.648716663405
6970.262083434425
6967.101254354654
6968.999413173152
6967.919755671714
6964.608001168114
6966.374998724854
6963.324714458692
6955.162465541855
6960.867239917952
6949.2601182934695
6956.2555614324265
6951.148512398016
6944.044340175897
6941.349947335563
6945.298343772036
6938.660968532012
6932.194623121563
6935.143564533486
6931.221463874301
6932.693093291846
6938.760838015586
6921.72030853697
6918.608793262235
6916.954642016921
6911.897287056318
