Impedance (Ohms)
6936.695090089828
6947.840696895675
6928.178655864605
6952.779507004557
6940.357292802595
6947.17787745655
6942.921295238939
6945.7653396683345
6941.522647103202
6921.813110474572
6951.789020123342
6942.316934222025
6922.56007071874
6944.405956404588
6947.92434149801
6936.279119604214
6929.2468733321675
6933.860209634796
6952.437962187947
6934.789291741413
6939.822671431987
6941.849759910106
6926.875906013765
6948.82378150752
6952.10115410854
6943.149595299753
6930.800588937023
6950.125387227608
6940.707875320573
6920.32683891653
6930.5781280863885
6947.145699628064
6946.285740210401
6928.2535196167755
6950.114488176288
6937.987452860689
6931.8623298659395
6940.599587512908
6940.84170914675
6937.493071498003
6946.452283540718
6948.235039368169
6947.195369487828
6929.072146201416
6938.48961230075
6952.205992541743
6947.673177904171
6920.963349472651
6949.563106933889
6944.518556887529
6933.9977633755525
6940.701505309228
6926.1123442981825
6927.760466154872
6938.348718336809
6932.954522173477
6937.099168120165
6954.337831650328
6942.74739866182
6929.898825452905
6938.085766984122
6955.399224639808
6936.445736511465
6926.556526427632
6943.971765368866
6950.378251642134
6935.1248568121455
6929.322838045811
6949.158520102016
6943.00452392377
6931.043504532383
6951.698037979486
6939.386384355388
6953.357852375495
6935.8612436661515
6928.926612876366
6949.301587410691
6936.672328626479
6938.573038578047
6931.158223004504
6948.562385260625
6945.1361183514855
6932.264456647804
6947.2426722637565
6939.386384355388
6930.689721366119
6952.830614401076
6946.661633483692
6932.188553319624
6936.7724490443425
6944.373061798617
6930.60539365215
6934.241767285958
6946.446494506855
6951.698037979486
6942.9575460284905
6930.5625789549285
6948.319375142132
6937.0157949944
6935.80072723225
6942.159087536203
6938.376551499942
6941.4391143876555
6947.934453901171
6949.067561534066
6940.7850113982995
6928.262066041792
6940.85224710331
6951.5298410820005
6938.303737957162
6930.290950338865
6956.315036571267
6938.724434821705
6938.6404479393195
6939.0666197038545
6957.040488326086
6943.308065826512
6929.7483024175845
6951.789020123342
6940.683883686968
6933.09320876233
6937.639720006662
6943.634914513966
6939.809321366238
6948.174815630026
6951.537915689627
6935.299329513466
6933.826831530638
6945.784272846328
6940.290984153331
6937.300777870777
6935.702173590191
6945.54706244553
6935.7923310982305
6948.57192300688
6942.411679176137
6944.240593691173
6949.563106933889
6939.862246002331
6925.137328705041
6954.5100852993355
6943.56918741823
6944.223600956678
6929.489586094796
6934.114508444184
6942.546147810788
6937.104973442625
6936.765218200147
6952.109988512934
6931.702309199614
6943.392341522724
6951.126106704704
6944.981498819271
6933.915056031132
6946.018563848051
6941.606103426477
6941.90580870017
6931.351982692104
6943.165328631457
6946.7800937892025
6939.316137054064
6950.148281379898
6941.445526131353
6931.8623298659395
6937.144422282616
6939.796864019246
6924.0783592445005
6951.058193262253
6947.101721995632
6943.736489198663
6938.162815670908
6949.986552688921
6943.980131625705
6931.945517315378
6946.774104971949
6948.296518968028
6942.427328055753
6942.427328055753
6936.36246617109
6940.609568749858
6941.445526131353
6948.739905284127
6944.147383617825
6938.079364546037
6940.450528914832
6960.110273370234
6940.609568749858
6924.487349969334
6935.625919676719
6944.307393240134
6936.504031495791
6939.553621975884
6939.293468772644
6935.534897459429
6945.8680420842065
6934.88222445311
6930.40126536081
6944.634661373288
6937.24065966953
6925.3990076552745
