Impedance (Ohms)
6058.630755363767
6063.509962925288
6052.498538509645
6046.857846070789
6052.455061074863
6048.280030029857
6040.1522825346665
6035.2092969529485
6048.605932030116
6051.245332511057
6097.7742860324215
6165.118117932533
6242.576817145485
6301.006614101039
6358.489944686998
6233.77930585846
6313.229850104558
6276.164891368309
6219.105241812968
6192.419590994571
6182.166262439537
6191.342259718854
6190.623069818674
6148.597054159173
6146.863977328334
6136.320359978362
6112.696624757492
6113.534215831906
6132.426512318157
6129.645329055255
6120.885272478893
6108.912994232502
6109.055354401269
6118.59616419813
6109.281397493341
6095.689701844126
6099.8450208806835
6092.0517764024235
6085.29007490482
6086.889311760955
6086.865313022783
6073.197952600562
6089.75952132572
6076.946522184893
6055.394580800324
6047.262857590698
6065.971245877397
6068.701689287809
6070.265192112244
6073.26224653055
6071.917232546566
6080.509123358109
6073.311944106378
6074.602234497483
6055.85667000782
6057.641175929248
6060.468393106769
6054.141498188457
6062.912110374022
6065.755777697443
6065.726213217064
6101.862595980571
6099.029106649295
6018.58948435505
6036.554629079865
6051.960939548544
6053.276303334355
6045.684741867927
6049.5889080649395
6054.402581822135
6054.270290660536
6048.756175148055
6045.356571255691
6036.270157856798
6038.0416850921965
6030.153033468096
6023.554739535876
6031.574986074992
6016.351727570827
6018.516055533641
6025.283180765299
6025.012553737077
6012.133761650798
6018.532863056635
6018.145420103113
6007.049351038865
6001.5260278241185
6017.0992051438925
6000.644053390166
6002.635111445894
6011.8985482282615
6018.560461858267
6003.73037387212
6001.22409562087
6015.304600351656
6006.218486333277
6007.583317615714
6017.893991591625
6003.015432123692
5992.708350414596
5991.162492592303
5967.471392179162
5952.081313220841
5954.216620568647
5972.958303919321
5975.269724116945
5967.10980416658
5972.5356554900145
5980.329118137802
5973.894097258349
5980.841959687066
5968.867083433496
6036.6742858459675
5903.624380407906
5921.3616643253235
5977.694055577935
5973.1603145646495
5981.889825919176
5975.9833596080525
5976.005601900579
5981.3201720389925
5980.280881384175
5969.375731790984
5966.5755001528705
5979.413885173776
5969.718299496363
5972.283717666834
5968.176836881876
5954.469098016225
5957.178707790836
5959.744067850779
5976.2330930001435
5989.144166142058
5970.977682305131
5969.418566887984
5975.292604203495
5958.681324932377
5953.480170330216
5968.131063626123
5968.047909890505
5943.939654469746
5961.6921365295475
5946.134683730237
5938.809767701653
5947.130853198392
5927.892600051484
5920.679525102852
5926.422970519488
5934.494673869678
5915.524948744135
5916.41157034895
5918.4731817266065
5902.514528518752
5902.850595845893
5901.65165760161
5910.617996228327
5921.783129512966
5912.16938963127
5913.335344353701
5908.894334922361
5899.674317700534
5904.950103094052
5911.031042372084
5899.275966404715
5893.51245463913
5872.701666631274
5939.598030502942
5973.554074156913
5909.019931367407
5950.173342289035
5968.654667576532
6011.250403290755
6080.279868401083
6180.66716898757
6221.525359964813
6192.52796954611
6133.793753929524
6082.6042251976505
6070.092446765283
6053.77151085513
6034.382539397847
6007.898617749329
5990.62690790498
5983.848470351257
5958.840499831999
5951.540651059931
5953.28877784667
5943.765942769994
5952.659891180043
5955.915369684201
5934.784275747969
5940.721209165094
5941.238066937959
5934.349113609908
5929.569295004194
5935.3044746778205
5941.560787204519
5946.874003079079
5965.82327721173
5976.195710168724
