Impedance (Ohms)
6121.025245442046
6119.923088993731
6150.372772567586
6160.2985308904435
6157.814693104579
6145.238183325932
6133.917848664921
6120.19955190038
6126.257224381655
6132.178949292716
6141.170386779578
6125.217325042394
6108.74458611418
6104.943221022021
6074.656195715406
6160.26463479824
6105.77330536016
6189.323764137634
6180.9112195127445
6212.2607537086415
6225.607961882955
6209.110807898288
6236.764345417093
6193.913292014157
6157.702500830613
6152.017335864282
6151.424046963084
6172.146780661024
6180.329862100953
6212.58510005101
6224.881161183427
6164.834424770113
6157.938269681185
6153.62492388018
6131.196725651144
6137.557157347864
6150.016627774641
6144.618598752157
6138.740895294674
6111.91067941857
6131.405699566462
6113.731800076992
6108.818174161877
6095.282799065852
6095.6963292055425
6108.256407115476
6116.269806724277
6129.989374475107
6132.596708758947
6132.4344647234975
6115.70756996717
6133.500613453572
6113.813489379867
6101.1711033610745
6094.486609213731
6095.206863298517
6104.06612221971
6086.239813028619
6100.630228076016
6087.182619887366
6078.822145301395
6112.927193705854
6080.231787254705
5968.91788435925
6114.0282055854905
6075.839459917258
6056.975896349187
6055.595226891458
6067.746188177756
6065.241692853139
6055.171936405936
6063.121283090657
6061.360506181741
6049.57889525534
6039.719145955915
6050.533213263128
6045.014032571465
6039.267355689103
6032.656773064828
6044.808655289101
6035.272548466055
6039.03575361525
6036.633498605026
6039.356777402903
6027.334339261209
6018.836069592634
6030.941209289262
6028.142718638122
6015.604153816265
6022.224417161181
6030.912150948678
6017.631342798785
6012.61848792261
6031.444511181109
6026.45451381769
6016.3995111582635
6015.304161137615
6026.818111653931
6009.844126306904
5995.602604440409
5992.735672110594
5992.765932059498
5962.542148205024
5977.034642738863
5987.977259927209
5969.731734230657
5994.163856251645
6002.708705077548
6008.063983557675
6000.336625466839
5992.621482932795
5971.630314819561
6040.67074088223
5941.766949406163
5934.994646705984
6021.129420063199
6003.026627805653
5999.611641749351
6007.108273372806
6009.161911846372
6005.274196315574
5995.663032611042
5997.382278261887
5995.26913111099
5995.717846789012
5986.227268467077
5995.75963961226
5979.874977261379
5969.266571479418
5975.393092299924
5976.508741781325
5965.421015218146
5965.415572311
5986.326883242067
6000.661493887827
6013.687536732557
6012.07653562255
6020.221345547605
6022.677164385525
6028.074022798462
6005.783338650656
5998.925243540397
5988.1607901845
5992.464145027027
5986.414304906184
5972.000373125505
5984.77715340818
5976.32075728776
5974.320501854953
5967.985827566714
5960.418686379368
5952.507119391851
5968.536233908238
5957.477466231309
5947.166707008933
5963.331291230803
5959.0259730139405
5952.0956804990265
5961.573626409898
5959.049370312735
5947.043231311619
5945.90317664108
5965.324997971277
5961.798064703206
5970.858996597307
5969.634902634517
5973.744037115151
5961.075920842791
5989.853805531448
6004.132471468096
6017.868924200806
6053.440297002418
6075.434229900727
6091.153328368462
6121.927705395628
6118.017696581382
6095.486428450766
6093.547280496422
6080.653083054802
6058.3305880460275
6046.869669400896
6018.691202269102
5988.403552138558
5995.726481598219
5986.177361093866
5984.861110172382
5974.01568463369
5981.4735854456585
5972.482359750503
5960.045411370845
5960.314214083596
5959.774760482296
5948.392230990877
5944.347222605009
5955.0449258706385
5952.092176275241
5955.246616024886
5959.613890130421
5969.477802794282
5967.623893771864
