Impedance (Ohms)
6943.623489627813
6937.258968409074
6953.158251152253
6943.170751888006
6932.686844200215
6945.438349133762
6950.13465245781
6946.863302148424
6926.375080433745
6940.450528914832
6952.039433870696
6940.701505309228
6927.351210895437
6946.766484672057
6942.026150416297
6928.113228550992
6945.364279058624
6951.060246383813
6937.846093990549
6943.812573782873
6952.193946948924
6942.99838595433
6932.654887084405
6951.454060765329
6934.313047963176
6936.7563629231245
6948.562385260625
6945.700427090611
6940.282829630215
6949.824317300027
6933.083793950197
6933.583464916204
6947.832834219519
6935.548678274076
6939.87218438425
6937.265685612855
6953.158251152253
6939.050993539241
6930.224811265048
6944.230894898777
6950.187036574573
6943.339216881461
6941.020305220767
6954.337831650328
6936.7724490443425
6949.311168037577
6947.557597660794
6946.041298099286
6938.313947177693
6945.700427090611
6942.022238864654
6934.899267470824
6955.9914878651825
6940.441461096488
6943.742668866557
6943.742668866557
6930.314241700103
6954.1525170665145
6943.903485125261
6933.666476938854
6954.574506541876
6939.226754314761
6928.894075951345
6945.6348203020625
6952.0259533525
6937.744797400202
6941.606103426477
6948.731083721105
6934.053167079718
6953.24300574937
6944.568408947678
6925.081487990699
6938.956346450633
6942.24336111596
6946.111670276111
6948.09140087362
6935.935802249132
6949.8718331814325
6942.8311375183275
6932.642843954302
6944.307393240134
6943.241990423101
6940.7910244293125
6946.514252971421
6954.254074969223
6942.084804628292
6935.4511451371345
6944.319636389411
6937.735343806652
6928.677977643397
6939.637126309743
6951.6216938963735
6922.06277900854
6952.122751594557
6941.682515054767
6929.009339282707
6942.485813701261
6950.804557045411
6941.832367787913
6936.7724490443425
6941.579243819823
6947.018027505559
6937.425893733006
6946.746349692232
6928.420822130168
6942.812546277125
6943.986868372313
6927.360424802773
6948.655952447754
6947.101721995632
6934.639419635563
6944.568408947678
6951.751215143264
6936.445736511465
6924.00508865586
6946.766484672057
6948.752649813739
6942.9310084085055
6937.735343806652
6953.931612057358
6938.412711323238
6932.44304393934
6936.840321029366
6954.833587049068
6931.8623298659395
6951.941841476123
6940.297511760675
6924.347346672392
6944.974977867549
6940.85224710331
6937.059700239169
6945.121246434171
6941.205623888585
6934.86274687244
6939.040741404833
6942.0007353764995
6925.557014996095
6941.9257427806315
6953.655430575412
6933.568825354942
6934.895209598067
6950.4623864890855
6936.504031495791
6939.12506011556
6948.739905284127
6932.423171663889
6928.2535196167755
6948.168385220931
6937.32487314562
6930.391308344556
6941.772786862577
6941.90580870017
6941.362274098678
6948.341415237922
6938.376551499942
6926.887268156682
6948.007909493471
6937.418264523213
6929.723495993549
6942.570138901046
6948.720629316329
6936.093660506096
6934.463215561372
6950.235576128761
6938.061683601655
6926.1123442981825
6946.514252971421
6931.1717998828135
6943.803492780453
6948.708542091911
6935.767558720131
6926.291343972073
6945.700427090611
6933.73619667997
6933.49351221285
6942.546147810788
6938.3978825553895
6934.646168817547
6938.406109734366
6945.129497552968
6952.437962187947
6935.514622387219
6955.558894918699
6945.95173479579
6926.352992329837
6941.382640199007
6935.367316654794
6942.504005123615
6939.050993539241
6932.06332519842
6954.74276482525
6941.367415231846
6944.558311234752
6952.696085876872
6922.704848815335
6943.792782409823
6938.556384803207
6943.253751150652
6949.890879653223
6939.149868487019
