Impedance (Ohms)
7405.390141952253
7390.284977966597
7402.093845722247
7411.322247650294
7390.21589082948
7384.922573631191
7385.031002499043
7372.8415762415425
7348.4519137941215
7346.350898975055
7340.602922694532
7324.435096559787
7242.0395857409885
7742.676952074121
7436.632561308381
7328.2318578067325
7420.637174851348
7447.8327818949665
7408.7473949815685
7385.526236054021
7367.14277836669
7362.156296557317
7355.0868626728
7340.5899641090455
7333.548380244807
7343.511160515977
7327.755089031546
7314.958381702407
7346.817632801637
7327.2057315759685
7323.9641747003525
7341.365064558927
7312.775405994505
7316.368304670273
7332.267751972228
7317.260666185782
7301.656936432723
7307.339312012496
7279.705259224902
7270.409942497384
7337.547278219889
7306.13221906636
7312.63503723644
7290.367785254632
7296.956079247533
7276.496812523244
7291.461151605903
7280.909057509303
7272.622212923588
7272.63198399533
7277.345680913899
7265.482544785874
7250.02834717358
7253.171138735539
7253.608625315965
7254.249800762414
7224.214212309218
7267.225997304512
7244.468685517081
7225.8557903981355
7236.061981233683
7269.761166496897
7231.7969823520825
7191.425669366232
7254.700739335304
7224.957412912217
7208.850149687593
7200.056124215905
7202.381296844191
7196.701164615359
7158.698346129762
7203.792605106226
7204.038455024997
7191.065414214655
7169.790982669094
7126.9867967682385
7430.881428044735
7221.182398880675
7201.857416169997
7203.640847504395
7182.122394591439
7166.70949951121
7179.657132778426
7179.97725336066
7174.216957688036
7198.842137973156
7165.200288861456
7172.874253797359
7192.511728533295
7148.368271207019
7159.593140170959
7150.881185770944
7127.058129185283
7129.397170773188
7123.5775865667665
7090.047886441908
7218.413687704629
7206.774723184294
7167.873835633293
7163.436064271217
7173.754917617928
7160.799949070332
7136.801471884402
7146.259375468388
7135.342638332553
7133.905880587345
7142.2183420223855
7139.030356973512
7140.815743065595
7116.759420177879
7116.391211354376
7100.557108213686
7218.23499986956
7149.34108981315
7022.781849121337
7131.027864657068
7110.562275733647
7118.980623315082
7112.000472790652
7098.1144310901445
7111.080568971817
7097.2944919758565
7082.687648518365
7107.84198602975
7089.85328684971
7084.48707146165
7086.87953631499
7092.057789301222
7111.548961290065
7105.163475790838
7090.6657405741935
7092.730529866706
7083.304466175092
7068.833295657394
7069.098543170059
7073.172599701076
7063.850406468222
7078.385987844842
7067.2109085119755
7066.036576423032
7045.421067914643
7035.96029621739
7047.9397983357485
7047.759760842758
7041.893193295979
7065.238586779611
7057.52097701719
7040.250862493924
7023.7711200112035
7037.763700046066
7026.024538681848
7030.866528587075
7029.572125977883
7028.147188225598
7025.302667938339
7014.33325422237
7025.13962795235
7014.089442863795
7015.285250816397
7018.278258961148
7021.662335339663
6997.661295961552
7005.354452060678
7017.413171302192
7003.785281127577
6966.063807231614
6950.589929743351
7080.739300386056
6995.975880297612
6999.763036852538
6975.882208424109
6993.816251382515
6998.921808049455
6988.1102117756
6985.574536960184
6981.7805578046155
6970.205103816166
6991.832222779952
6973.992050304492
6964.265351804926
6986.57581323089
6973.897878641822
6959.998373515148
6964.045586433775
6977.005886197666
6978.632199055931
6944.413529186719
6952.445680947787
6973.254521322786
6953.105241201228
6952.498516249979
6955.743762700531
6948.987540067504
6943.8265629679145
6957.066088893606
6934.812272198447
6927.70454222917
6930.338066694256
6920.717065649448
6927.073903301104
