Impedance (Ohms)
6123.213754923978
6130.897515380836
6155.719209806219
6156.574682863903
6154.109828147446
6147.971336420328
6141.083788497254
6124.433344187281
6117.867655648053
6137.132813493068
6144.481572081267
6125.565822769078
6110.354104467807
6110.591477202404
6084.480828814067
6118.932260777931
6115.7673857058835
6193.973795931402
6192.649292625548
6196.466800610207
6228.024857502868
6219.0995313991025
6227.531345396022
6179.5732278093765
6174.933101129722
6148.87997406118
6140.364903043848
6169.082345612511
6187.123635580371
6205.9525412031335
6207.3423523593065
6184.846038606923
6155.039596929694
6143.046083255726
6133.050329443335
6149.787289196707
6145.006514346101
6141.988646446956
6141.801290216338
6122.482056783521
6123.551471626307
6104.095278963779
6125.958777588185
6092.176897594966
6082.671449651317
6114.0263472370125
6125.286940719214
6120.670459063181
6130.3678940911095
6130.073590221189
6109.516127794453
6132.231462230019
6115.2556010967755
6094.827294214001
6097.3844559626905
6088.865945502106
6094.647781193082
6092.7361321757035
6090.845471731777
6079.603968726193
6085.6509433466945
6122.687348274678
6048.787764534573
5992.620103506121
6069.29548430537
6069.048045216267
6055.112761087931
6071.298215138299
6064.434235959079
6049.347983701162
6059.277488186445
6071.2608792912
6057.400963558594
6050.875034362694
6056.33520019089
6043.73420717603
6048.212429297356
6037.062994219516
6025.992745383748
6042.468615476075
6040.471626936384
6045.390611964551
6029.132659671246
6036.022781135275
6025.325413138998
6018.099936333674
6024.867694273151
6034.052789479268
6011.633485806503
6015.278945245807
6025.638373222317
6019.42124851584
6021.128137456761
6022.2782778786195
6025.426616061923
6016.761951255976
6013.6972045828215
6023.805801513708
6014.029476532834
5998.890328902808
5980.062713510067
5990.385610577867
5963.536782571064
5981.684502108623
5975.6283272041255
5979.24107926001
6010.208552665735
5993.900263478378
6003.230908643467
6000.908036719946
5998.225273427662
5967.16443162235
6033.365231311031
6019.995967563272
5944.633868116553
6025.409802650947
6009.908786694323
6006.445342734299
6003.218183816299
6008.556918513148
6006.02633437822
6001.822141648571
5987.834469206984
6002.615189128213
5994.085323108901
5985.27749836659
5990.467162546061
5975.680846024919
5977.827640383352
5974.018873412809
5962.866238783525
5965.451316860133
5981.264227790552
5982.135790086033
5997.728089940225
6016.434448053209
6022.736042120771
6017.476113316439
6021.025570462107
6034.983862191038
6004.25337087247
6002.998741429733
5998.776543446916
5984.63429889782
5978.841335863707
5986.492333185703
5978.340130277553
5974.728415147348
5974.45904985166
5963.816846868731
5958.156876390051
5972.592025347835
5963.541578377873
5963.140734178018
5960.181297271547
5956.881863543173
5953.442298625833
5959.35230418572
5960.179349516359
5952.342130560101
5948.966784800281
5950.342152124266
5961.303836012343
5966.722965672401
5969.383369575977
5966.253867339138
5984.667578543016
5942.932169143247
5989.586291838833
6004.7332893080675
6008.657845339929
6049.44077086105
6083.834746876312
6100.54631715542
6115.485455250522
6125.779733175689
6099.523790403554
6094.153127541619
6079.08159515126
6056.038616755427
6034.461271647885
6019.45656169942
5998.015150870775
5983.039104736475
5978.227903272004
5985.411070451624
5978.353420402515
5968.591417946499
5975.083033952204
5962.607319408298
5957.677684259197
5951.3715515456925
5954.2296377015
5951.248539329888
5946.453847266724
5934.155380650992
5958.043384628884
5959.164263463646
5965.797771153346
5966.789270096237
